%2/25/2010     #Date
%15:59:24     #Time
%COVIS
%TC-2160 CALIBRATION
%HORIZONTAL BEAM PATTERN
%0.20     #Transmit Amplitude  
%Transmit      #UUT Mode Flag 
%Standard E37 Receiver With Preamp     #Projector Standard
%006     #Projector Standard S/N
%400.00     #Frequency
%163.11     #UUT Projector Source Level
%147.55     #Reference Receiver Receive Level
%183.76     #Max Sensitivity For Subtract
%6.00     #Range
%2.10     #Depth
%1.0     #Number Pings to Average
%19.2     #CalibTemp 
%19.50     #Water Temperature
%1.000     #Angle Step
%241     #NumVals
 114.418  -28.88
 113.448  -27.56
 112.474  -28.16
 111.495  -30.23
 110.520  -34.02
 109.546  -38.38
 108.572  -37.45
 107.598  -34.39
 106.622  -35.83
 105.647  -35.70
 104.674  -31.74
 103.688  -27.07
 102.716  -22.94
 101.739  -21.31
 100.762  -19.20
  99.789  -17.87
  98.813  -16.79
  97.835  -15.68
  96.860  -15.30
  95.888  -15.37
  94.911  -15.62
  93.940  -16.12
  92.965  -16.93
  91.990  -16.59
  91.016  -15.91
  90.039  -14.80
  89.063  -13.53
  88.086  -11.42
  87.107   -9.94
  86.131   -8.96
  85.157   -8.36
  84.178   -7.87
  83.203   -7.28
  82.229   -6.56
  81.252   -6.16
  80.278   -6.28
  79.303   -5.66
  78.328   -4.57
  77.355   -3.49
  76.377   -3.00
  75.403   -2.46
  74.428   -2.18
  73.453   -1.88
  72.475   -2.05
  71.499   -2.42
  70.525   -2.85
  69.546   -3.64
  68.570   -3.61
  67.599   -3.40
  66.601   -2.65
  65.625   -2.82
  64.653   -2.38
  63.676   -2.44
  62.700   -2.73
  61.725   -2.85
  60.747   -3.43
  59.772   -3.31
  58.796   -3.25
  57.817   -3.09
  56.845   -2.77
  55.869   -2.69
  54.892   -2.64
  53.916   -2.16
  52.942   -2.15
  51.965   -2.69
  50.990   -3.20
  50.013   -3.58
  49.035   -4.03
  48.058   -3.81
  47.081   -3.61
  46.110   -2.43
  45.137   -2.15
  44.159   -1.55
  43.183   -1.37
  42.206   -1.33
  41.230   -1.14
  40.257   -1.17
  39.280   -1.48
  38.304   -1.50
  37.328   -1.35
  36.351   -1.68
  35.373   -1.35
  34.399   -1.09
  33.422   -1.73
  32.445   -1.92
  31.472   -2.34
  30.497   -2.34
  29.520   -2.55
  28.544   -2.61
  27.558   -2.51
  26.579   -2.23
  25.600   -1.80
  24.623   -1.41
  23.646   -0.82
  22.671   -0.81
  21.691   -0.92
  20.712   -0.68
  19.736   -0.39
  18.754   -0.28
  17.776   -0.41
  16.803   -0.74
  15.823   -0.62
  14.845   -0.76
  13.867   -0.91
  12.889   -0.98
  11.910   -1.19
  10.937   -1.34
   9.961   -1.42
   8.984   -1.19
   8.007   -0.99
   7.033   -1.08
   6.057   -0.78
   5.081   -0.79
   4.105   -0.74
   3.128   -0.42
   2.154   -0.32
   1.174   -0.06
   0.194   -0.08
 359.217   -0.22
 358.243   -0.46
 357.267   -0.47
 356.291   -0.71
 355.309   -0.85
 354.336   -0.75
 353.361   -1.22
 352.380   -1.25
 351.406   -1.10
 350.430   -0.50
 349.453   -0.89
 348.477   -0.52
 347.500   -0.70
 346.524    0.15
 345.549    0.27
 344.570    0.40
 343.594   -0.02
 342.621   -0.49
 341.645   -0.67
 340.665   -0.69
 339.686   -0.94
 338.707   -0.95
 337.734   -1.38
 336.759   -1.41
 335.783   -1.75
 334.804   -2.09
 333.832   -2.14
 332.857   -2.29
 331.884   -2.69
 330.908   -2.26
 329.929   -2.13
 328.955   -2.19
 327.978   -1.75
 327.002   -1.18
 326.029   -1.39
 325.053   -1.12
 324.074   -1.41
 323.100   -1.90
 322.123   -2.50
 321.147   -2.41
 320.172   -2.07
 319.195   -2.16
 318.217   -1.71
 317.239   -1.52
 316.265   -1.59
 315.288   -2.17
 314.313   -3.37
 313.337   -3.56
 312.358   -3.76
 311.383   -4.20
 310.404   -3.78
 309.424   -3.70
 308.451   -2.17
 307.471   -2.50
 306.493   -2.51
 305.516   -2.61
 304.541   -3.13
 303.563   -3.19
 302.588   -3.45
 301.610   -3.21
 300.633   -3.61
 299.656   -4.29
 298.680   -4.18
 297.701   -4.23
 296.723   -4.10
 295.745   -4.70
 294.770   -4.34
 293.795   -4.16
 292.818   -4.62
 291.842   -4.18
 290.868   -3.42
 289.891   -3.26
 288.915   -3.83
 287.936   -3.70
 286.957   -3.02
 285.986   -3.48
 285.009   -3.60
 284.031   -4.01
 283.055   -4.44
 282.076   -5.07
 281.098   -5.56
 280.123   -6.21
 279.146   -6.89
 278.168   -7.74
 277.193   -8.90
 276.213  -10.03
 275.234  -10.82
 274.259  -11.00
 273.280  -11.94
 272.304  -13.10
 271.330  -13.49
 270.352  -14.45
 269.371  -15.40
 268.398  -15.57
 267.419  -16.50
 266.440  -18.01
 265.465  -19.33
 264.486  -21.29
 263.507  -22.37
 262.535  -23.38
 261.556  -23.74
 260.577  -24.33
 259.600  -23.60
 258.625  -23.20
 257.646  -23.79
 256.668  -25.11
 255.691  -26.99
 254.710  -28.55
 253.736  -29.21
 252.759  -29.18
 251.779  -28.25
 250.803  -27.81
 249.823  -28.60
 248.841  -30.42
 247.864  -34.11
 246.884  -36.68
 245.904  -36.88
 244.928  -36.34
 243.948  -34.52
 242.967  -36.37
 241.992  -44.05
 241.018  -39.03
